## ORBS filter file 
# Author: Simon Prunet <prunet@cfht.hawaii.edu>
# Filter name : C4
# Filter edges are taken at 90% (FILTER_MIN) and 90% (FILTER_MAX)
# Wavelength in nm | Transmission percentage
# FILTER_MIN 798
# FILTER_MAX 823
# ORDER 12
# STEP 5271.5
# PHASE_FIT_ORDER 1
# MODULATION_EFFICIENCY 0.8
1000.0000 -0.3570
999.7332 -0.3373
999.4665 -0.3217
999.1997 -0.3356
998.9330 -0.3447
998.6662 -0.3393
998.3995 -0.3231
998.1327 -0.2890
997.8660 -0.2792
997.5992 -0.2936
997.3324 -0.2816
997.0657 -0.2538
996.7989 -0.2430
996.5322 -0.2376
996.2654 -0.2182
995.9987 -0.1970
995.7319 -0.2050
995.4652 -0.2112
995.1984 -0.2048
994.9316 -0.2021
994.6649 -0.2101
994.3981 -0.2339
994.1314 -0.2836
993.8646 -0.3048
993.5979 -0.2983
993.3311 -0.3146
993.0644 -0.3439
992.7976 -0.3522
992.5308 -0.3538
992.2641 -0.3790
991.9973 -0.4069
991.7306 -0.4005
991.4638 -0.3920
991.1971 -0.3702
990.9303 -0.3525
990.6636 -0.3466
990.3968 -0.3203
990.1300 -0.2616
989.8633 -0.2218
989.5965 -0.1999
989.3298 -0.1930
989.0630 -0.1946
988.7963 -0.1844
988.5295 -0.1705
988.2628 -0.1699
987.9960 -0.1709
987.7292 -0.1634
987.4625 -0.1603
987.1957 -0.1838
986.9290 -0.1930
986.6622 -0.1632
986.3955 -0.1601
986.1287 -0.1985
985.8620 -0.2250
985.5952 -0.2405
985.3284 -0.2415
985.0617 -0.2346
984.7949 -0.2396
984.5282 -0.2481
984.2614 -0.2495
983.9947 -0.2500
983.7279 -0.2500
983.4612 -0.2525
983.1944 -0.2696
982.9276 -0.2885
982.6609 -0.3125
982.3941 -0.3338
982.1274 -0.3508
981.8606 -0.3802
981.5939 -0.4207
981.3271 -0.4302
981.0604 -0.4227
980.7936 -0.4090
980.5268 -0.3936
980.2601 -0.4074
979.9933 -0.4242
979.7266 -0.4322
979.4598 -0.4393
979.1931 -0.4415
978.9263 -0.4406
978.6596 -0.4321
978.3928 -0.4274
978.1260 -0.4285
977.8593 -0.4121
977.5925 -0.3801
977.3258 -0.3585
977.0590 -0.3425
976.7923 -0.3523
976.5255 -0.3694
976.2588 -0.3261
975.9920 -0.2788
975.7252 -0.3049
975.4585 -0.3257
975.1917 -0.3171
974.9250 -0.3065
974.6582 -0.2905
974.3915 -0.2710
974.1247 -0.2465
973.8580 -0.2489
973.5912 -0.2751
973.3244 -0.3012
973.0577 -0.3273
972.7909 -0.3263
972.5242 -0.3178
972.2574 -0.3481
971.9907 -0.3804
971.7239 -0.3644
971.4572 -0.3497
971.1904 -0.3417
970.9236 -0.3435
970.6569 -0.3696
970.3901 -0.4030
970.1234 -0.4468
969.8566 -0.4538
969.5899 -0.4293
969.3231 -0.4044
969.0564 -0.3793
968.7896 -0.3816
968.5228 -0.3912
968.2561 -0.3930
967.9893 -0.3937
967.7226 -0.3851
967.4558 -0.3767
967.1891 -0.3687
966.9223 -0.3661
966.6556 -0.3768
966.3888 -0.3799
966.1220 -0.3724
965.8553 -0.3548
965.5885 -0.3287
965.3218 -0.3200
965.0550 -0.3200
964.7883 -0.3505
964.5215 -0.3889
964.2548 -0.3763
963.9880 -0.3604
963.7212 -0.3700
963.4545 -0.3734
963.1877 -0.3461
962.9210 -0.3275
962.6542 -0.3291
962.3875 -0.3068
962.1207 -0.2519
961.8540 -0.2270
961.5872 -0.2270
961.3204 -0.2403
961.0537 -0.2600
960.7869 -0.2048
960.5202 -0.1306
960.2534 -0.1339
959.9867 -0.1431
959.7199 -0.1441
959.4532 -0.1485
959.1864 -0.1682
958.9196 -0.1762
958.6529 -0.1570
958.3861 -0.1585
958.1194 -0.1879
957.8526 -0.2231
957.5859 -0.2631
957.3191 -0.2568
957.0524 -0.2285
956.7856 -0.2629
956.5188 -0.3125
956.2521 -0.3552
955.9853 -0.3967
955.7186 -0.4276
955.4518 -0.4586
955.1851 -0.4895
954.9183 -0.5146
954.6516 -0.5263
954.3848 -0.5424
954.1180 -0.5643
953.8513 -0.5166
953.5845 -0.4136
953.3178 -0.4029
953.0510 -0.4349
952.7843 -0.4600
952.5175 -0.4835
952.2508 -0.4676
951.9840 -0.4483
951.7172 -0.4200
951.4505 -0.3933
951.1837 -0.3736
950.9170 -0.3470
950.6502 -0.3054
950.3835 -0.2927
950.1167 -0.3173
949.8499 -0.3697
949.5832 -0.4439
949.3164 -0.4604
949.0497 -0.4508
948.7829 -0.4329
948.5162 -0.4132
948.2494 -0.3614
947.9827 -0.3125
947.7159 -0.3354
947.4491 -0.3628
947.1824 -0.4093
946.9156 -0.4552
946.6489 -0.5000
946.3821 -0.5010
946.1154 -0.4465
945.8486 -0.4100
945.5819 -0.3870
945.3151 -0.3889
945.0483 -0.4017
944.7816 -0.3774
944.5148 -0.3448
944.2481 -0.4201
943.9813 -0.4936
943.7146 -0.4600
943.4478 -0.4244
943.1811 -0.3807
942.9143 -0.3591
942.6475 -0.3841
942.3808 -0.4249
942.1140 -0.4852
941.8473 -0.5177
941.5805 -0.5295
941.3138 -0.5170
941.0470 -0.4940
940.7803 -0.5199
940.5135 -0.5562
940.2467 -0.5028
939.9800 -0.4500
939.7132 -0.4628
939.4465 -0.4808
939.1797 -0.5198
938.9130 -0.5223
938.6462 -0.4498
938.3795 -0.4124
938.1127 -0.4177
937.8459 -0.4345
937.5792 -0.4596
937.3124 -0.4846
937.0457 -0.5097
936.7789 -0.4640
936.5122 -0.4038
936.2454 -0.4137
935.9787 -0.4260
935.7119 -0.4266
935.4451 -0.4273
935.1784 -0.4289
934.9116 -0.4427
934.6449 -0.4811
934.3781 -0.4735
934.1114 -0.4111
933.8446 -0.3853
933.5779 -0.3858
933.3111 -0.3977
933.0443 -0.4143
932.7776 -0.3939
932.5108 -0.3661
932.2441 -0.3665
931.9773 -0.3692
931.7106 -0.3836
931.4438 -0.3729
931.1771 -0.2678
930.9103 -0.1802
930.6435 -0.1274
930.3768 -0.1123
930.1100 -0.1411
929.8433 -0.1289
929.5765 -0.0878
929.3098 -0.0380
929.0430 0.0154
928.7763 -0.0565
928.5095 -0.1526
928.2427 -0.1709
927.9760 -0.1826
927.7092 -0.1553
927.4425 -0.1523
927.1757 -0.2371
926.9090 -0.3068
926.6422 -0.3474
926.3755 -0.3364
926.1087 -0.2665
925.8419 -0.2810
925.5752 -0.3535
925.3084 -0.3740
925.0417 -0.3740
924.7749 -0.3902
924.5082 -0.4094
924.2414 -0.4286
923.9747 -0.4461
923.7079 -0.4466
923.4411 -0.4511
923.1744 -0.4698
922.9076 -0.4826
922.6409 -0.4842
922.3741 -0.5432
922.1074 -0.6664
921.8406 -0.6994
921.5739 -0.6717
921.3071 -0.6756
921.0403 -0.6916
920.7736 -0.6166
920.5068 -0.5253
920.2401 -0.4793
919.9733 -0.4423
919.7066 -0.4748
919.4398 -0.4970
919.1731 -0.4837
918.9063 -0.4810
918.6395 -0.4981
918.3728 -0.4783
918.1060 -0.4180
917.8393 -0.3950
917.5725 -0.3966
917.3058 -0.4219
917.0390 -0.4560
916.7723 -0.5034
916.5055 -0.5530
916.2387 -0.5211
915.9720 -0.4914
915.7052 -0.4957
915.4385 -0.5000
915.1717 -0.5043
914.9050 -0.5078
914.6382 -0.5099
914.3715 -0.4868
914.1047 -0.4367
913.8379 -0.4510
913.5712 -0.5071
913.3044 -0.5525
913.0377 -0.5941
912.7709 -0.6325
912.5042 -0.6704
912.2374 -0.7424
911.9707 -0.8013
911.7039 -0.7496
911.4371 -0.7064
911.1704 -0.6909
910.9036 -0.6818
910.6369 -0.6839
910.3701 -0.7497
910.1034 -0.8825
909.8366 -0.9258
909.5699 -0.9125
909.3031 -0.8846
909.0363 -0.8515
908.7696 -0.8521
908.5028 -0.8579
908.2361 -0.9013
907.9693 -0.9467
907.7026 -1.0054
907.4358 -1.0363
907.1691 -0.9792
906.9023 -0.9510
906.6355 -0.9729
906.3688 -0.9276
906.1020 -0.8129
905.8353 -0.7726
905.5685 -0.7785
905.3018 -0.7677
905.0350 -0.7512
904.7683 -0.7175
904.5015 -0.6812
904.2347 -0.6041
903.9680 -0.5290
903.7012 -0.4703
903.4345 -0.4518
903.1677 -0.5569
902.9010 -0.6244
902.6342 -0.6281
902.3675 -0.6846
902.1007 -0.7945
901.8339 -0.8270
901.5672 -0.8126
901.3004 -0.8453
901.0337 -0.8939
900.7669 -0.8632
900.5002 -0.8210
900.2334 -0.8903
899.9667 -0.9626
899.6999 -1.0554
899.4331 -1.1154
899.1664 -1.0770
898.8996 -1.0377
898.6329 -0.9972
898.3661 -0.9569
898.0994 -0.9169
897.8326 -0.8749
897.5659 -0.8317
897.2991 -0.7893
897.0323 -0.7471
896.7656 -0.7847
896.4988 -0.8324
896.2321 -0.6931
895.9653 -0.5664
895.6986 -0.5232
895.4318 -0.4984
895.1651 -0.5272
894.8983 -0.5657
894.6315 -0.6202
894.3648 -0.6630
894.0980 -0.6944
893.8313 -0.7411
893.5645 -0.7966
893.2978 -0.7934
893.0310 -0.7715
892.7643 -0.7728
892.4975 -0.7790
892.2307 -0.9903
891.9640 -1.1772
891.6972 -1.2081
891.4305 -1.2466
891.1637 -1.3063
890.8970 -1.3348
890.6302 -1.3134
890.3635 -1.2358
890.0967 -1.1046
889.8299 -1.0794
889.5632 -1.1147
889.2964 -1.1026
889.0297 -1.0760
888.7629 -1.0005
888.4962 -0.9177
888.2294 -0.7555
887.9627 -0.6129
887.6959 -0.5911
887.4291 -0.5389
887.1624 -0.4028
886.8956 -0.2985
886.6289 -0.2435
886.3621 -0.2782
886.0954 -0.3967
885.8286 -0.4654
885.5619 -0.5065
885.2951 -0.5398
885.0283 -0.5707
884.7616 -0.6269
884.4948 -0.6850
884.2281 -0.6850
883.9613 -0.6811
883.6946 -0.6545
883.4278 -0.6698
883.1611 -0.7984
882.8943 -0.8760
882.6275 -0.8760
882.3608 -0.9308
882.0940 -1.0360
881.8273 -1.0799
881.5605 -1.0906
881.2938 -1.1462
881.0270 -1.2150
880.7603 -1.2556
880.4935 -1.2928
880.2267 -1.3264
879.9600 -1.3654
879.6932 -1.4348
879.4265 -1.4684
879.1597 -1.4081
878.8930 -1.3585
878.6262 -1.3249
878.3595 -1.2609
878.0927 -1.1697
877.8259 -1.0541
877.5592 -0.9255
877.2924 -0.9007
877.0257 -0.9055
876.7589 -1.0400
876.4922 -1.1841
876.2254 -1.1867
875.9587 -1.1679
875.6919 -1.0319
875.4251 -0.9353
875.1584 -0.9401
874.8916 -1.0028
874.6249 -1.1501
874.3581 -1.1225
874.0914 -0.9411
873.8246 -0.9057
873.5579 -0.9462
873.2911 -0.9028
873.0243 -0.8361
872.7576 -0.6341
872.4908 -0.4275
872.2241 -0.4707
871.9573 -0.5446
871.6906 -0.7799
871.4238 -0.9721
871.1571 -1.0564
870.8903 -1.1600
870.6235 -1.2912
870.3568 -1.5241
870.0900 -1.8448
869.8233 -1.9025
869.5565 -1.8262
869.2898 -1.7452
869.0230 -1.6631
868.7563 -1.8105
868.4895 -1.9734
868.2227 -1.9841
867.9560 -1.9672
867.6892 -1.8109
867.4225 -1.6797
867.1557 -1.6098
866.8890 -1.5215
866.6222 -1.4073
866.3555 -1.2694
866.0887 -1.1115
865.8219 -1.1470
865.5552 -1.2787
865.2884 -1.3403
865.0217 -1.3835
864.7549 -1.2718
864.4882 -1.1520
864.2214 -1.1514
863.9547 -1.1360
863.6879 -1.0480
863.4211 -0.9742
863.1544 -0.9342
862.8876 -0.9539
862.6209 -1.0558
862.3541 -1.1825
862.0874 -1.3298
861.8206 -1.3518
861.5539 -1.3129
861.2871 -1.2322
861.0203 -1.1410
860.7536 -1.1813
860.4868 -1.2353
860.2201 -1.3437
859.9533 -1.4663
859.6866 -1.6568
859.4198 -1.7905
859.1531 -1.7921
858.8863 -1.8437
858.6195 -1.9627
858.3528 -1.9701
858.0860 -1.8868
857.8193 -1.7613
857.5525 -1.6157
857.2858 -1.7875
857.0190 -2.0372
856.7523 -2.1635
856.4855 -2.2604
856.2187 -2.0096
855.9520 -1.8160
855.6852 -1.8827
855.4185 -2.0143
855.1517 -2.2933
854.8850 -2.3952
854.6182 -2.2634
854.3515 -2.2095
854.0847 -2.2175
853.8179 -2.2557
853.5512 -2.3080
853.2844 -2.1455
853.0177 -1.9321
852.7509 -1.8229
852.4842 -1.7473
852.2174 -2.0893
851.9507 -2.3290
851.6839 -2.1183
851.4171 -1.8711
851.1504 -1.5430
850.8836 -1.2628
850.6169 -1.0446
850.3501 -0.8600
850.0834 -0.7015
849.8166 -0.6520
849.5498 -0.6520
849.2831 -0.6962
849.0163 -0.7507
848.7496 -0.6513
848.4828 -0.5305
848.2161 -0.2424
847.9493 -0.0089
847.6826 -0.0084
847.4158 -0.0077
847.1490 -0.0066
846.8823 -0.0060
846.6155 -0.0060
846.3488 -0.0060
846.0820 -0.0060
845.8153 -0.0060
845.5485 -0.0060
845.2818 -0.0069
845.0150 -0.0079
844.7482 -0.0080
844.4815 -0.0080
844.2147 -0.0080
843.9480 -0.0081
843.6812 -0.0086
843.4145 -0.0088
843.1477 -0.0083
842.8810 -0.0080
842.6142 -0.0080
842.3474 -0.0074
842.0807 -0.0063
841.8139 -0.0067
841.5472 -0.0078
841.2804 -0.0071
841.0137 -0.0061
840.7469 -0.0060
840.4802 -0.0060
840.2134 -0.0054
839.9466 -0.0048
839.6799 -0.0037
839.4131 -0.0030
839.1464 -0.0030
838.8796 -0.0030
838.6129 -0.0030
838.3461 -0.0027
838.0794 -0.0022
837.8126 -0.0005
837.5458 0.0016
837.2791 0.0038
837.0123 0.0059
836.7456 0.0101
836.4788 0.0144
836.2121 0.0192
835.9453 0.0249
835.6786 0.0339
835.4118 0.0441
835.1450 0.0563
834.8783 0.0701
834.6115 0.0855
834.3448 0.1038
834.0780 0.1241
833.8113 0.1496
833.5445 0.1774
833.2778 0.2131
833.0110 0.2505
832.7442 0.2939
832.4775 0.3390
832.2107 0.3976
831.9440 0.4596
831.6772 0.5337
831.4105 0.6201
831.1437 0.7305
830.8770 0.8803
830.6102 1.0761
830.3434 1.3633
830.0767 1.7149
829.8099 2.2322
829.5432 2.8164
829.2764 3.6680
829.0097 4.5713
828.7429 5.8560
828.4762 7.1975
828.2094 8.9715
827.9426 10.8603
827.6759 13.1688
827.4091 15.6758
827.1424 18.5669
826.8756 21.7286
826.6089 25.2002
826.3421 28.9569
826.0754 32.9102
825.8086 37.0779
825.5418 41.3300
825.2751 45.7048
825.0083 50.1026
824.7416 54.4729
824.4748 58.8256
824.2081 63.0174
823.9413 67.1323
823.6746 70.9747
823.4078 74.6551
823.1410 78.0290
822.8743 81.1264
822.6075 83.9135
822.3408 86.3569
822.0740 88.5683
821.8073 90.3924
821.5405 92.0676
821.2738 93.3514
821.0070 94.5651
820.7402 95.4287
820.4735 96.2511
820.2067 96.7857
819.9400 97.2771
819.6732 97.6196
819.4065 97.9179
819.1397 98.1346
818.8730 98.3133
818.6062 98.4504
818.3394 98.5516
818.0727 98.6289
817.8059 98.7008
817.5392 98.7707
817.2724 98.8356
817.0057 98.8996
816.7389 98.9433
816.4722 98.9884
816.2054 99.0498
815.9386 99.1046
815.6719 99.1377
815.4051 99.1683
815.1384 99.1944
814.8716 99.2175
814.6049 99.2372
814.3381 99.2479
814.0714 99.2527
813.8046 99.2681
813.5378 99.2873
813.2711 99.2978
813.0043 99.3069
812.7376 99.3175
812.4708 99.3285
812.2041 99.3424
811.9373 99.3610
811.6706 99.3952
811.4038 99.4170
811.1370 99.4170
810.8703 99.4108
810.6035 99.3980
810.3368 99.3943
810.0700 99.3964
809.8033 99.3840
809.5365 99.3664
809.2698 99.3419
809.0030 99.3163
808.7362 99.3002
808.4695 99.2811
808.2027 99.2378
807.9360 99.1949
807.6692 99.1527
807.4025 99.1116
807.1357 99.0721
806.8690 99.0321
806.6022 98.9915
806.3354 98.9375
806.0687 98.8751
805.8019 98.8154
805.5352 98.7567
805.2684 98.7073
805.0017 98.6593
804.7349 98.5440
804.4682 98.4189
804.2014 98.2252
803.9346 97.9892
803.6679 97.6227
803.4011 97.1676
803.1344 96.5620
802.8676 95.8106
802.6009 94.9111
802.3341 93.7588
802.0674 92.4528
801.8006 90.8082
801.5338 89.0492
801.2671 86.8057
801.0003 84.4919
800.7336 81.6298
800.4668 78.6975
800.2001 75.2761
799.9333 71.7403
799.6666 67.8617
799.3998 63.8699
799.1330 59.6898
798.8663 55.4279
798.5995 51.0846
798.3328 46.7620
798.0660 42.4518
797.7993 38.2411
797.5325 34.0632
797.2658 30.1621
796.9990 26.3012
796.7322 22.8835
796.4655 19.5377
796.1987 16.6754
795.9320 13.9611
795.6652 11.6793
795.3985 9.6014
795.1317 7.8552
794.8650 6.3418
794.5982 5.0555
794.3314 4.0099
794.0647 3.1046
793.7979 2.4376
793.5312 1.8470
793.2644 1.4642
792.9977 1.1103
792.7309 0.9145
792.4642 0.7309
792.1974 0.6258
791.9306 0.5307
791.6639 0.4640
791.3971 0.4035
791.1304 0.3528
790.8636 0.3081
790.5969 0.2691
790.3301 0.2346
790.0634 0.2026
789.7966 0.1767
789.5298 0.1527
789.2631 0.1325
788.9963 0.1128
788.7296 0.0973
788.4628 0.0822
788.1961 0.0694
787.9293 0.0576
787.6626 0.0485
787.3958 0.0405
787.1290 0.0341
786.8623 0.0280
786.5955 0.0221
786.3288 0.0173
786.0620 0.0130
785.7953 0.0095
785.5285 0.0063
785.2618 0.0046
784.9950 0.0029
784.7282 0.0003
784.4615 -0.0021
784.1947 -0.0026
783.9280 -0.0033
783.6612 -0.0044
783.3945 -0.0050
783.1277 -0.0050
782.8610 -0.0050
782.5942 -0.0050
782.3274 -0.0050
782.0607 -0.0050
781.7939 -0.0050
781.5272 -0.0050
781.2604 -0.0050
780.9937 -0.0050
780.7269 -0.0050
780.4602 -0.0048
780.1934 -0.0038
779.9266 -0.0030
779.6599 -0.0030
779.3931 -0.0030
779.1264 -0.0030
778.8596 -0.0030
778.5929 -0.0030
778.3261 -0.0030
778.0594 -0.0030
777.7926 -0.0030
777.5258 -0.0030
777.2591 -0.0030
776.9923 -0.0030
776.7256 -0.0030
776.4588 -0.0030
776.1921 -0.0030
775.9253 -0.0030
775.6586 -0.0030
775.3918 -0.0030
775.1250 -0.0030
774.8583 -0.0030
774.5915 -0.0030
774.3248 -0.0030
774.0580 -0.0030
773.7913 -0.0030
773.5245 -0.0030
773.2578 -0.0030
772.9910 -0.0030
772.7242 -0.0030
772.4575 -0.0032
772.1907 -0.0042
771.9240 -0.0050
771.6572 -0.0050
771.3905 -0.0050
771.1237 -0.0050
770.8570 -0.0050
770.5902 -0.0050
770.3234 -0.0050
770.0567 -0.0050
769.7899 -0.0050
769.5232 -0.0050
769.2564 -0.0050
768.9897 -0.0050
768.7229 -0.0050
768.4562 -0.0050
768.1894 -0.0050
767.9226 -0.0050
767.6559 -0.0050
767.3891 -0.0050
767.1224 -0.0050
766.8556 -0.0050
766.5889 -0.0050
766.3221 -0.0043
766.0554 -0.0032
765.7886 -0.0030
765.5218 -0.0030
765.2551 -0.0040
764.9883 -0.0050
764.7216 -0.0039
764.4548 -0.0030
764.1881 -0.0030
763.9213 -0.0030
763.6546 -0.0030
763.3878 -0.0030
763.1210 -0.0030
762.8543 -0.0030
762.5875 -0.0030
762.3208 -0.0030
762.0540 -0.0030
761.7873 -0.0030
761.5205 -0.0030
761.2538 -0.0030
760.9870 -0.0030
760.7202 -0.0030
760.4535 -0.0030
760.1867 -0.0030
759.9200 -0.0030
759.6532 -0.0030
759.3865 -0.0030
759.1197 -0.0030
758.8530 -0.0030
758.5862 -0.0030
758.3194 -0.0030
758.0527 -0.0030
757.7859 -0.0030
757.5192 -0.0030
757.2524 -0.0030
756.9857 -0.0030
756.7189 -0.0030
756.4522 -0.0030
756.1854 -0.0030
755.9186 -0.0030
755.6519 -0.0030
755.3851 -0.0030
755.1184 -0.0030
754.8516 -0.0030
754.5849 -0.0030
754.3181 -0.0030
754.0514 -0.0030
753.7846 -0.0026
753.5178 -0.0020
753.2511 -0.0020
752.9843 -0.0020
752.7176 -0.0020
752.4508 -0.0021
752.1841 -0.0026
751.9173 -0.0030
751.6506 -0.0030
751.3838 -0.0030
751.1170 -0.0030
750.8503 -0.0030
750.5835 -0.0030
750.3168 -0.0030
750.0500 -0.0030
749.7833 -0.0030
749.5165 -0.0030
749.2497 -0.0030
748.9830 -0.0030
748.7162 -0.0030
748.4495 -0.0030
748.1827 -0.0030
747.9160 -0.0030
747.6492 -0.0030
747.3825 -0.0030
747.1157 -0.0030
746.8489 -0.0030
746.5822 -0.0030
746.3154 -0.0030
746.0487 -0.0030
745.7819 -0.0030
745.5152 -0.0030
745.2484 -0.0030
744.9817 -0.0030
744.7149 -0.0030
744.4481 -0.0030
744.1814 -0.0030
743.9146 -0.0030
743.6479 -0.0030
743.3811 -0.0030
743.1144 -0.0030
742.8476 -0.0030
742.5809 -0.0030
742.3141 -0.0030
742.0473 -0.0030
741.7806 -0.0030
741.5138 -0.0030
741.2471 -0.0030
740.9803 -0.0030
740.7136 -0.0030
740.4468 -0.0030
740.1801 -0.0030
739.9133 -0.0028
739.6465 -0.0023
739.3798 -0.0020
739.1130 -0.0020
738.8463 -0.0020
738.5795 -0.0020
738.3128 -0.0020
738.0460 -0.0020
737.7793 -0.0020
737.5125 -0.0020
737.2457 -0.0020
736.9790 -0.0020
736.7122 -0.0020
736.4455 -0.0020
736.1787 -0.0020
735.9120 -0.0022
735.6452 -0.0027
735.3785 -0.0030
735.1117 -0.0030
734.8449 -0.0030
734.5782 -0.0030
734.3114 -0.0030
734.0447 -0.0030
733.7779 -0.0030
733.5112 -0.0030
733.2444 -0.0030
732.9777 -0.0030
732.7109 -0.0030
732.4441 -0.0029
732.1774 -0.0024
731.9106 -0.0020
731.6439 -0.0020
731.3771 -0.0020
731.1104 -0.0020
730.8436 -0.0020
730.5769 -0.0020
730.3101 -0.0020
730.0433 -0.0020
729.7766 -0.0020
729.5098 -0.0020
729.2431 -0.0020
728.9763 -0.0020
728.7096 -0.0026
728.4428 -0.0030
728.1761 -0.0030
727.9093 -0.0028
727.6425 -0.0023
727.3758 -0.0020
727.1090 -0.0020
726.8423 -0.0020
726.5755 -0.0020
726.3088 -0.0020
726.0420 -0.0020
725.7753 -0.0020
725.5085 -0.0020
725.2417 -0.0020
724.9750 -0.0020
724.7082 -0.0020
724.4415 -0.0020
724.1747 -0.0020
723.9080 -0.0022
723.6412 -0.0027
723.3745 -0.0027
723.1077 -0.0022
722.8409 -0.0020
722.5742 -0.0020
722.3074 -0.0020
722.0407 -0.0020
721.7739 -0.0020
721.5072 -0.0020
721.2404 -0.0020
720.9737 -0.0020
720.7069 -0.0020
720.4401 -0.0020
720.1734 -0.0020
719.9066 -0.0020
719.6399 -0.0020
719.3731 -0.0023
719.1064 -0.0028
718.8396 -0.0030
718.5729 -0.0030
718.3061 -0.0030
718.0393 -0.0030
717.7726 -0.0030
717.5058 -0.0030
717.2391 -0.0030
716.9723 -0.0029
716.7056 -0.0024
716.4388 -0.0020
716.1721 -0.0020
715.9053 -0.0020
715.6385 -0.0020
715.3718 -0.0015
715.1050 -0.0004
714.8383 0.0000
714.5715 0.0000
714.3048 0.0000
714.0380 0.0000
713.7713 0.0009
713.5045 0.0020
713.2377 0.0020
712.9710 0.0020
712.7042 0.0020
712.4375 0.0020
712.1707 0.0020
711.9040 0.0022
711.6372 0.0027
711.3705 0.0027
711.1037 0.0022
710.8369 0.0020
710.5702 0.0020
710.3034 0.0020
710.0367 0.0020
709.7699 0.0020
709.5032 0.0020
709.2364 0.0009
708.9697 0.0000
708.7029 0.0000
708.4361 0.0000
708.1694 0.0000
707.9026 -0.0004
707.6359 -0.0015
707.3691 -0.0020
707.1024 -0.0020
706.8356 -0.0020
706.5689 -0.0020
706.3021 -0.0020
706.0353 -0.0020
705.7686 -0.0020
705.5018 -0.0020
705.2351 -0.0020
704.9683 -0.0020
704.7016 -0.0020
704.4348 -0.0020
704.1681 -0.0020
703.9013 -0.0022
703.6345 -0.0027
703.3678 -0.0030
703.1010 -0.0030
702.8343 -0.0030
702.5675 -0.0030
702.3008 -0.0026
702.0340 -0.0021
701.7673 -0.0020
701.5005 -0.0020
701.2337 -0.0020
700.9670 -0.0020
700.7002 -0.0020
700.4335 -0.0020
700.1667 -0.0020
699.9000 -0.0020
699.6332 -0.0020
699.3665 -0.0020
699.0997 -0.0020
698.8329 -0.0020
698.5662 -0.0020
698.2994 -0.0020
698.0327 -0.0020
697.7659 -0.0020
697.4992 -0.0020
697.2324 -0.0020
696.9657 -0.0020
696.6989 -0.0020
696.4321 -0.0020
696.1654 -0.0020
695.8986 -0.0020
695.6319 -0.0020
695.3651 -0.0020
695.0984 -0.0020
694.8316 -0.0020
694.5649 -0.0020
694.2981 -0.0020
694.0313 -0.0020
693.7646 -0.0020
693.4978 -0.0020
693.2311 -0.0020
692.9643 -0.0020
692.6976 -0.0020
692.4308 -0.0020
692.1641 -0.0020
691.8973 -0.0016
691.6305 -0.0005
691.3638 0.0000
691.0970 0.0000
690.8303 -0.0007
690.5635 -0.0017
690.2968 -0.0020
690.0300 -0.0020
689.7633 -0.0020
689.4965 -0.0020
689.2297 -0.0020
688.9630 -0.0020
688.6962 -0.0020
688.4295 -0.0020
688.1627 -0.0020
687.8960 -0.0020
687.6292 -0.0020
687.3625 -0.0020
687.0957 -0.0020
686.8289 -0.0013
686.5622 -0.0002
686.2954 0.0000
686.0287 0.0000
685.7619 0.0000
685.4952 0.0000
685.2284 0.0000
684.9617 0.0000
684.6949 0.0000
684.4281 0.0000
684.1614 0.0000
683.8946 0.0000
683.6279 0.0000
683.3611 0.0000
683.0944 0.0000
682.8276 0.0000
682.5609 0.0000
682.2941 0.0000
682.0273 0.0000
681.7606 -0.0010
681.4938 -0.0020
681.2271 -0.0020
680.9603 -0.0020
680.6936 -0.0020
680.4268 -0.0020
680.1601 -0.0020
679.8933 -0.0020
679.6265 -0.0020
679.3598 -0.0020
679.0930 -0.0020
678.8263 -0.0020
678.5595 -0.0020
678.2928 -0.0020
678.0260 -0.0020
677.7593 -0.0010
677.4925 0.0000
677.2257 0.0000
676.9590 0.0000
676.6922 0.0000
676.4255 0.0000
676.1587 0.0000
675.8920 0.0000
675.6252 0.0000
675.3585 0.0000
675.0917 0.0000
674.8249 0.0000
674.5582 0.0000
674.2914 0.0000
674.0247 0.0000
673.7579 0.0000
673.4912 0.0000
673.2244 0.0000
672.9577 0.0000
672.6909 0.0000
672.4241 0.0000
672.1574 0.0000
671.8906 0.0000
671.6239 0.0000
671.3571 0.0000
671.0904 0.0000
670.8236 0.0000
670.5569 0.0000
670.2901 0.0000
670.0233 0.0000
669.7566 0.0000
669.4898 0.0000
669.2231 0.0000
668.9563 0.0000
668.6896 0.0000
668.4228 0.0000
668.1561 0.0000
667.8893 0.0000
667.6225 0.0000
667.3558 0.0000
667.0890 0.0000
666.8223 0.0000
666.5555 0.0000
666.2888 0.0000
666.0220 0.0000
665.7553 0.0000
665.4885 0.0000
665.2217 0.0000
664.9550 0.0000
664.6882 0.0000
664.4215 0.0000
664.1547 0.0000
663.8880 0.0000
663.6212 0.0000
663.3545 0.0000
663.0877 0.0000
662.8209 0.0000
662.5542 0.0000
662.2874 0.0000
662.0207 0.0000
661.7539 0.0000
661.4872 0.0000
661.2204 0.0000
660.9537 0.0000
660.6869 0.0000
660.4201 0.0000
660.1534 0.0000
659.8866 0.0000
659.6199 0.0000
659.3531 0.0000
659.0864 0.0000
658.8196 0.0000
658.5529 0.0000
658.2861 0.0000
658.0193 0.0000
657.7526 0.0000
657.4858 0.0000
657.2191 0.0000
656.9523 0.0000
656.6856 0.0000
656.4188 0.0000
656.1521 0.0000
655.8853 0.0000
655.6185 0.0000
655.3518 0.0000
655.0850 0.0000
654.8183 0.0000
654.5515 0.0000
654.2848 0.0000
654.0180 0.0000
653.7513 0.0000
653.4845 0.0000
653.2177 0.0000
652.9510 0.0000
652.6842 0.0000
652.4175 0.0000
652.1507 0.0000
651.8840 0.0000
651.6172 0.0000
651.3505 0.0000
651.0837 0.0000
650.8169 0.0000
650.5502 0.0000
650.2834 0.0000
650.0167 0.0000
649.7499 0.0000
649.4832 0.0001
649.2164 0.0011
648.9496 0.0020
648.6829 0.0020
648.4161 0.0020
648.1494 0.0020
647.8826 0.0020
647.6159 0.0020
647.3491 0.0020
647.0824 0.0020
646.8156 0.0020
646.5488 0.0020
646.2821 0.0020
646.0153 0.0020
645.7486 0.0020
645.4818 0.0019
645.2151 0.0009
644.9483 0.0000
644.6816 0.0000
644.4148 0.0000
644.1480 0.0000
643.8813 0.0000
643.6145 0.0000
643.3478 0.0000
643.0810 0.0000
642.8143 0.0000
642.5475 0.0000
642.2808 0.0000
642.0140 0.0000
641.7472 0.0000
641.4805 0.0000
641.2137 0.0000
640.9470 0.0000
640.6802 0.0000
640.4135 0.0000
640.1467 0.0000
639.8800 0.0000
639.6132 0.0000
639.3464 0.0000
639.0797 0.0000
638.8129 0.0000
638.5462 0.0000
638.2794 0.0000
638.0127 0.0000
637.7459 0.0000
637.4792 0.0000
637.2124 0.0000
636.9456 0.0000
636.6789 0.0000
636.4121 0.0000
636.1454 0.0000
635.8786 0.0000
635.6119 0.0000
635.3451 0.0000
635.0784 0.0000
634.8116 0.0000
634.5448 0.0000
634.2781 0.0000
634.0113 0.0000
633.7446 0.0000
633.4778 0.0000
633.2111 0.0000
632.9443 0.0000
632.6776 0.0000
632.4108 0.0000
632.1440 0.0000
631.8773 0.0000
631.6105 0.0000
631.3438 0.0000
631.0770 0.0000
630.8103 0.0000
630.5435 0.0000
630.2768 0.0000
630.0100 0.0000
629.7432 0.0000
629.4765 0.0000
629.2097 0.0000
628.9430 0.0000
628.6762 0.0000
628.4095 0.0000
628.1427 0.0000
627.8760 0.0000
627.6092 0.0000
627.3424 0.0000
627.0757 0.0000
626.8089 0.0000
626.5422 0.0000
626.2754 0.0000
626.0087 0.0000
625.7419 0.0000
625.4752 0.0000
625.2084 0.0000
624.9416 0.0000
624.6749 0.0000
624.4081 0.0000
624.1414 0.0000
623.8746 0.0000
623.6079 0.0000
623.3411 0.0000
623.0744 0.0000
622.8076 0.0000
622.5408 0.0000
622.2741 0.0000
622.0073 0.0000
621.7406 0.0000
621.4738 0.0000
621.2071 0.0000
620.9403 0.0002
620.6736 0.0013
620.4068 0.0020
620.1400 0.0020
619.8733 0.0020
619.6065 0.0020
619.3398 0.0020
619.0730 0.0020
618.8063 0.0024
618.5395 0.0029
618.2728 0.0030
618.0060 0.0030
617.7392 0.0030
617.4725 0.0030
617.2057 0.0030
616.9390 0.0030
616.6722 0.0030
616.4055 0.0030
616.1387 0.0030
615.8720 0.0030
615.6052 0.0030
615.3384 0.0030
615.0717 0.0030
614.8049 0.0030
614.5382 0.0030
614.2714 0.0030
614.0047 0.0030
613.7379 0.0030
613.4712 0.0030
613.2044 0.0030
612.9376 0.0030
612.6709 0.0030
612.4041 0.0030
612.1374 0.0030
611.8706 0.0027
611.6039 0.0022
611.3371 0.0020
611.0704 0.0020
610.8036 0.0020
610.5368 0.0020
610.2701 0.0020
610.0033 0.0020
609.7366 0.0020
609.4698 0.0020
609.2031 0.0020
608.9363 0.0020
608.6696 0.0020
608.4028 0.0016
608.1360 0.0005
607.8693 0.0000
607.6025 0.0000
607.3358 0.0000
607.0690 0.0000
606.8023 0.0000
606.5355 0.0000
606.2688 0.0000
606.0020 0.0000
605.7352 0.0000
605.4685 0.0000
605.2017 0.0000
604.9350 0.0000
604.6682 0.0000
604.4015 0.0000
604.1347 0.0000
603.8680 0.0000
603.6012 0.0000
603.3344 0.0000
603.0677 0.0000
602.8009 0.0000
602.5342 0.0000
602.2674 0.0000
602.0007 0.0000
601.7339 0.0000
601.4672 0.0000
601.2004 0.0000
600.9336 0.0000
600.6669 0.0000
600.4001 0.0000
600.1334 0.0000
599.8666 0.0000
599.5999 0.0000
599.3331 0.0000
599.0664 0.0000
598.7996 0.0000
598.5328 0.0000
598.2661 0.0000
597.9993 0.0000
597.7326 0.0000
597.4658 0.0000
597.1991 0.0000
596.9323 0.0000
596.6656 0.0000
596.3988 0.0000
596.1320 0.0000
595.8653 0.0000
595.5985 0.0000
595.3318 0.0000
595.0650 0.0000
594.7983 0.0000
594.5315 0.0000
594.2648 0.0000
593.9980 0.0000
593.7312 0.0000
593.4645 0.0000
593.1977 0.0000
592.9310 0.0000
592.6642 0.0000
592.3975 0.0000
592.1307 0.0000
591.8640 0.0000
591.5972 0.0000
591.3304 0.0000
591.0637 0.0000
590.7969 0.0000
590.5302 0.0000
590.2634 0.0000
589.9967 0.0000
589.7299 0.0000
589.4632 0.0000
589.1964 0.0000
588.9296 0.0000
588.6629 0.0000
588.3961 0.0000
588.1294 0.0000
587.8626 0.0000
587.5959 0.0000
587.3291 0.0000
587.0624 0.0000
586.7956 0.0000
586.5288 0.0000
586.2621 0.0000
585.9953 0.0000
585.7286 0.0000
585.4618 0.0000
585.1951 0.0000
584.9283 0.0000
584.6616 0.0000
584.3948 0.0000
584.1280 0.0000
583.8613 0.0000
583.5945 0.0000
583.3278 0.0000
583.0610 0.0000
582.7943 0.0000
582.5275 0.0000
582.2608 0.0000
581.9940 0.0000
581.7272 0.0000
581.4605 0.0000
581.1937 0.0000
580.9270 0.0000
580.6602 0.0000
580.3935 0.0000
580.1267 0.0000
579.8600 0.0000
579.5932 0.0000
579.3264 0.0000
579.0597 0.0000
578.7929 0.0000
578.5262 0.0000
578.2594 0.0000
577.9927 0.0000
577.7259 0.0000
577.4592 0.0000
577.1924 0.0000
576.9256 0.0000
576.6589 0.0000
576.3921 0.0000
576.1254 0.0000
575.8586 0.0000
575.5919 0.0000
575.3251 0.0000
575.0584 0.0000
574.7916 0.0000
574.5248 0.0000
574.2581 0.0000
573.9913 0.0000
573.7246 0.0000
573.4578 0.0000
573.1911 0.0000
572.9243 0.0000
572.6576 0.0000
572.3908 0.0000
572.1240 0.0000
571.8573 0.0000
571.5905 0.0000
571.3238 0.0000
571.0570 0.0000
570.7903 0.0000
570.5235 0.0000
570.2568 0.0000
569.9900 0.0000
569.7232 0.0000
569.4565 0.0000
569.1897 0.0000
568.9230 0.0000
568.6562 0.0000
568.3895 0.0000
568.1227 0.0000
567.8560 0.0000
567.5892 0.0000
567.3224 0.0000
567.0557 0.0000
566.7889 0.0000
566.5222 0.0000
566.2554 0.0000
565.9887 0.0000
565.7219 0.0000
565.4552 0.0000
565.1884 0.0000
564.9216 0.0000
564.6549 0.0000
564.3881 0.0000
564.1214 0.0000
563.8546 0.0000
563.5879 0.0000
563.3211 0.0000
563.0544 0.0000
562.7876 0.0000
562.5208 0.0000
562.2541 0.0000
561.9873 0.0001
561.7206 0.0011
561.4538 0.0020
561.1871 0.0020
560.9203 0.0017
560.6536 0.0006
560.3868 0.0005
560.1200 0.0015
559.8533 0.0020
559.5865 0.0020
559.3198 0.0020
559.0530 0.0020
558.7863 0.0011
558.5195 0.0001
558.2528 0.0010
557.9860 0.0019
557.7192 0.0009
557.4525 0.0000
557.1857 0.0000
556.9190 0.0000
556.6522 0.0000
556.3855 0.0000
556.1187 0.0000
555.8520 0.0000
555.5852 0.0000
555.3184 0.0000
555.0517 0.0000
554.7849 0.0000
554.5182 0.0000
554.2514 0.0000
553.9847 0.0000
553.7179 0.0000
553.4512 0.0000
553.1844 0.0000
552.9176 0.0000
552.6509 0.0000
552.3841 0.0000
552.1174 0.0000
551.8506 0.0000
551.5839 0.0000
551.3171 0.0000
551.0504 0.0000
550.7836 0.0000
550.5168 0.0000
550.2501 0.0000
549.9833 0.0000
549.7166 0.0000
549.4498 0.0000
549.1831 0.0000
548.9163 0.0000
548.6495 0.0000
548.3828 0.0000
548.1160 0.0000
547.8493 0.0000
547.5825 0.0000
547.3158 0.0000
547.0490 0.0000
546.7823 0.0000
546.5155 0.0000
546.2487 0.0000
545.9820 0.0000
545.7152 0.0000
545.4485 0.0000
545.1817 0.0000
544.9150 0.0000
544.6482 0.0000
544.3815 0.0000
544.1147 0.0000
543.8479 0.0000
543.5812 0.0000
543.3144 0.0000
543.0477 0.0000
542.7809 0.0000
542.5142 0.0000
542.2474 0.0000
541.9807 0.0000
541.7139 0.0000
541.4471 0.0000
541.1804 0.0000
540.9136 0.0000
540.6469 0.0000
540.3801 0.0000
540.1134 0.0000
539.8466 0.0000
539.5799 0.0000
539.3131 0.0000
539.0463 0.0000
538.7796 0.0000
538.5128 0.0000
538.2461 0.0000
537.9793 0.0000
537.7126 0.0000
537.4458 0.0000
537.1791 0.0000
536.9123 0.0000
536.6455 0.0000
536.3788 0.0000
536.1120 0.0000
535.8453 0.0000
535.5785 0.0000
535.3118 0.0000
535.0450 0.0000
534.7783 0.0000
534.5115 0.0000
534.2447 0.0000
533.9780 0.0000
533.7112 0.0000
533.4445 0.0000
533.1777 0.0000
532.9110 0.0000
532.6442 0.0000
532.3775 0.0000
532.1107 0.0000
531.8439 0.0000
531.5772 0.0000
531.3104 0.0000
531.0437 0.0000
530.7769 0.0000
530.5102 0.0000
530.2434 0.0000
529.9767 0.0000
529.7099 0.0000
529.4431 0.0000
529.1764 0.0000
528.9096 0.0000
528.6429 0.0000
528.3761 0.0000
528.1094 0.0000
527.8426 0.0000
527.5759 0.0000
527.3091 0.0000
527.0423 0.0000
526.7756 0.0000
526.5088 0.0000
526.2421 0.0000
525.9753 0.0000
525.7086 0.0000
525.4418 0.0000
525.1751 0.0000
524.9083 0.0000
524.6415 0.0000
524.3748 0.0000
524.1080 0.0000
523.8413 0.0000
523.5745 0.0000
523.3078 0.0000
523.0410 0.0000
522.7743 0.0000
522.5075 0.0000
522.2407 0.0000
521.9740 0.0000
521.7072 0.0000
521.4405 0.0000
521.1737 0.0000
520.9070 0.0000
520.6402 0.0000
520.3735 0.0000
520.1067 0.0000
519.8399 0.0000
519.5732 0.0000
519.3064 0.0000
519.0397 0.0000
518.7729 0.0000
518.5062 0.0000
518.2394 0.0000
517.9727 0.0000
517.7059 0.0000
517.4391 0.0000
517.1724 0.0000
516.9056 0.0000
516.6389 0.0000
516.3721 0.0000
516.1054 0.0000
515.8386 0.0000
515.5719 0.0000
515.3051 0.0000
515.0383 0.0000
514.7716 0.0000
514.5048 0.0000
514.2381 0.0000
513.9713 0.0000
513.7046 0.0000
513.4378 0.0000
513.1711 0.0000
512.9043 0.0000
512.6375 0.0000
512.3708 0.0000
512.1040 0.0000
511.8373 0.0000
511.5705 0.0000
511.3038 0.0000
511.0370 0.0000
510.7703 0.0000
510.5035 0.0000
510.2367 0.0000
509.9700 0.0000
509.7032 0.0000
509.4365 0.0000
509.1697 0.0000
508.9030 0.0000
508.6362 0.0000
508.3695 0.0000
508.1027 0.0000
507.8359 0.0000
507.5692 0.0000
507.3024 0.0000
507.0357 0.0000
506.7689 0.0000
506.5022 0.0000
506.2354 0.0000
505.9687 0.0000
505.7019 0.0000
505.4351 0.0000
505.1684 0.0000
504.9016 0.0000
504.6349 0.0000
504.3681 0.0000
504.1014 0.0000
503.8346 0.0000
503.5679 0.0000
503.3011 0.0000
503.0343 0.0000
502.7676 0.0000
502.5008 0.0000
502.2341 0.0000
501.9673 0.0000
501.7006 0.0000
501.4338 0.0000
501.1671 0.0000
500.9003 0.0000
500.6335 0.0000
500.3668 0.0000
500.1000 0.0000
499.8333 0.0000
499.5665 0.0000
499.2998 0.0000
499.0330 0.0000
498.7663 0.0000
498.4995 0.0000
498.2327 0.0000
497.9660 0.0000
497.6992 0.0000
497.4325 0.0000
497.1657 0.0000
496.8990 0.0000
496.6322 0.0000
496.3655 0.0000
496.0987 0.0000
495.8319 0.0000
495.5652 0.0000
495.2984 0.0000
495.0317 0.0000
494.7649 0.0000
494.4982 0.0000
494.2314 0.0000
493.9647 0.0000
493.6979 0.0000
493.4311 0.0000
493.1644 0.0000
492.8976 0.0000
492.6309 0.0000
492.3641 0.0000
492.0974 0.0000
491.8306 0.0000
491.5639 0.0000
491.2971 0.0000
491.0303 0.0000
490.7636 0.0000
490.4968 0.0000
490.2301 0.0000
489.9633 0.0000
489.6966 0.0000
489.4298 0.0000
489.1631 0.0000
488.8963 0.0000
488.6295 0.0000
488.3628 0.0000
488.0960 0.0000
487.8293 0.0000
487.5625 0.0000
487.2958 0.0000
487.0290 0.0000
486.7623 0.0000
486.4955 0.0000
486.2287 0.0000
485.9620 0.0000
485.6952 0.0000
485.4285 0.0000
485.1617 0.0000
484.8950 0.0000
484.6282 0.0000
484.3615 0.0000
484.0947 0.0000
483.8279 0.0000
483.5612 0.0000
483.2944 0.0000
483.0277 0.0000
482.7609 0.0000
482.4942 0.0000
482.2274 0.0000
481.9607 0.0000
481.6939 0.0000
481.4271 0.0000
481.1604 0.0000
480.8936 0.0000
480.6269 0.0000
480.3601 0.0000
480.0934 0.0000
479.8266 0.0000
479.5599 0.0000
479.2931 0.0000
479.0263 0.0000
478.7596 0.0000
478.4928 0.0000
478.2261 0.0000
477.9593 0.0000
477.6926 0.0000
477.4258 0.0000
477.1591 0.0000
476.8923 0.0000
476.6255 0.0000
476.3588 0.0000
476.0920 0.0000
475.8253 0.0000
475.5585 0.0000
475.2918 0.0000
475.0250 0.0000
474.7583 0.0000
474.4915 0.0000
474.2247 0.0000
473.9580 0.0000
473.6912 0.0000
473.4245 0.0000
473.1577 0.0000
472.8910 0.0000
472.6242 0.0000
472.3575 0.0000
472.0907 0.0000
471.8239 0.0000
471.5572 0.0000
471.2904 0.0000
471.0237 0.0000
470.7569 0.0000
470.4902 0.0000
470.2234 0.0000
469.9567 0.0000
469.6899 0.0000
469.4231 0.0000
469.1564 0.0000
468.8896 0.0000
468.6229 0.0000
468.3561 0.0000
468.0894 0.0000
467.8226 0.0000
467.5559 0.0000
467.2891 0.0000
467.0223 0.0000
466.7556 0.0000
466.4888 0.0000
466.2221 0.0000
465.9553 0.0000
465.6886 0.0000
465.4218 0.0000
465.1551 0.0000
464.8883 0.0000
464.6215 0.0000
464.3548 0.0000
464.0880 0.0000
463.8213 0.0000
463.5545 0.0000
463.2878 0.0000
463.0210 0.0000
462.7543 0.0000
462.4875 0.0000
462.2207 0.0000
461.9540 0.0000
461.6872 0.0000
461.4205 0.0000
461.1537 0.0000
460.8870 0.0000
460.6202 0.0000
460.3535 0.0000
460.0867 0.0000
459.8199 0.0000
459.5532 0.0000
459.2864 0.0000
459.0197 0.0000
458.7529 0.0000
458.4862 0.0000
458.2194 0.0000
457.9527 0.0000
457.6859 0.0000
457.4191 0.0000
457.1524 0.0000
456.8856 0.0000
456.6189 0.0000
456.3521 0.0000
456.0854 0.0000
455.8186 0.0000
455.5519 0.0000
455.2851 0.0000
455.0183 0.0000
454.7516 0.0000
454.4848 0.0000
454.2181 0.0000
453.9513 0.0000
453.6846 0.0000
453.4178 0.0000
453.1511 0.0000
452.8843 0.0000
452.6175 0.0000
452.3508 0.0000
452.0840 0.0000
451.8173 0.0000
451.5505 0.0000
451.2838 0.0000
451.0170 0.0000
450.7503 0.0000
450.4835 0.0000
450.2167 0.0000
449.9500 0.0000
449.6832 0.0000
449.4165 0.0000
449.1497 0.0000
448.8830 0.0000
448.6162 0.0000
448.3494 0.0000
448.0827 0.0000
447.8159 0.0000
447.5492 0.0000
447.2824 0.0000
447.0157 0.0000
446.7489 0.0000
446.4822 0.0000
446.2154 0.0000
445.9486 0.0000
445.6819 0.0000
445.4151 0.0000
445.1484 0.0000
444.8816 0.0000
444.6149 0.0000
444.3481 0.0000
444.0814 0.0000
443.8146 0.0000
443.5478 0.0000
443.2811 0.0000
443.0143 0.0000
442.7476 0.0000
442.4808 0.0000
442.2141 0.0000
441.9473 0.0000
441.6806 0.0000
441.4138 0.0000
441.1470 0.0000
440.8803 0.0000
440.6135 0.0000
440.3468 0.0000
440.0800 0.0000
439.8133 0.0000
439.5465 0.0000
439.2798 0.0000
439.0130 0.0000
438.7462 0.0000
438.4795 0.0000
438.2127 0.0000
437.9460 0.0000
437.6792 0.0000
437.4125 0.0000
437.1457 0.0000
436.8790 0.0000
436.6122 0.0000
436.3454 0.0000
436.0787 0.0000
435.8119 0.0000
435.5452 0.0000
435.2784 0.0000
435.0117 0.0000
434.7449 0.0000
434.4782 0.0000
434.2114 0.0000
433.9446 0.0000
433.6779 0.0000
433.4111 0.0000
433.1444 0.0000
432.8776 0.0005
432.6109 0.0016
432.3441 0.0020
432.0774 0.0020
431.8106 0.0020
431.5438 0.0020
431.2771 0.0020
431.0103 0.0020
430.7436 0.0020
430.4768 0.0020
430.2101 0.0020
429.9433 0.0018
429.6766 0.0007
429.4098 0.0000
429.1430 0.0000
428.8763 0.0000
428.6095 0.0000
428.3428 0.0000
428.0760 0.0000
427.8093 0.0000
427.5425 0.0000
427.2758 0.0000
427.0090 0.0000
426.7422 0.0000
426.4755 0.0000
426.2087 0.0000
425.9420 0.0000
425.6752 0.0000
425.4085 0.0000
425.1417 0.0000
424.8750 0.0000
424.6082 0.0000
424.3414 0.0000
424.0747 0.0000
423.8079 0.0000
423.5412 0.0000
423.2744 0.0000
423.0077 0.0000
422.7409 0.0000
422.4742 0.0000
422.2074 0.0000
421.9406 0.0000
421.6739 0.0000
421.4071 0.0000
421.1404 0.0000
420.8736 0.0000
420.6069 0.0000
420.3401 0.0000
420.0734 0.0000
419.8066 0.0000
419.5398 0.0000
419.2731 0.0000
419.0063 0.0000
418.7396 0.0000
418.4728 0.0000
418.2061 0.0000
417.9393 0.0000
417.6726 0.0000
417.4058 0.0000
417.1390 0.0000
416.8723 0.0000
416.6055 0.0000
416.3388 0.0000
416.0720 0.0000
415.8053 0.0000
415.5385 0.0000
415.2718 0.0000
415.0050 0.0000
414.7382 0.0000
414.4715 0.0000
414.2047 0.0000
413.9380 0.0000
413.6712 0.0000
413.4045 0.0000
413.1377 0.0000
412.8710 0.0000
412.6042 0.0000
412.3374 0.0000
412.0707 0.0000
411.8039 0.0008
411.5372 0.0019
411.2704 0.0020
411.0037 0.0020
410.7369 0.0020
410.4702 0.0020
410.2034 0.0020
409.9366 0.0021
409.6699 0.0027
409.4031 0.0030
409.1364 0.0030
408.8696 0.0030
408.6029 0.0030
408.3361 0.0027
408.0694 0.0021
407.8026 0.0020
407.5358 0.0020
407.2691 0.0020
407.0023 0.0020
406.7356 0.0020
406.4688 0.0019
406.2021 0.0008
405.9353 0.0000
405.6686 0.0000
405.4018 0.0000
405.1350 0.0000
404.8683 0.0000
404.6015 0.0000
404.3348 0.0000
404.0680 0.0000
403.8013 0.0000
403.5345 0.0000
403.2678 0.0000
403.0010 0.0000
402.7342 0.0000
402.4675 0.0000
402.2007 0.0000
401.9340 0.0000
401.6672 0.0000
401.4005 0.0000
401.1337 0.0000
400.8670 0.0000
400.6002 0.0000
400.3334 0.0000
400.0667 0.0000
399.7999 0.0000
399.5332 0.0000
399.2664 0.0000
398.9997 0.0000
398.7329 0.0000
398.4662 0.0000
398.1994 0.0000
397.9326 0.0000
397.6659 0.0000
397.3991 0.0000
397.1324 0.0000
396.8656 0.0000
396.5989 0.0000
396.3321 0.0000
396.0654 0.0000
395.7986 0.0000
395.5318 0.0000
395.2651 0.0000
394.9983 0.0000
394.7316 0.0000
394.4648 0.0000
394.1981 0.0000
393.9313 0.0000
393.6646 0.0000
393.3978 0.0000
393.1310 0.0000
392.8643 0.0000
392.5975 0.0000
392.3308 0.0000
392.0640 0.0000
391.7973 -0.0008
391.5305 -0.0019
391.2638 -0.0020
390.9970 -0.0020
390.7302 -0.0020
390.4635 -0.0020
390.1967 -0.0020
389.9300 -0.0020
389.6632 -0.0020
389.3965 -0.0020
389.1297 -0.0020
388.8630 -0.0020
388.5962 -0.0020
388.3294 -0.0020
388.0627 -0.0020
387.7959 -0.0020
387.5292 -0.0020
387.2624 -0.0020
386.9957 -0.0020
386.7289 -0.0020
386.4622 -0.0020
386.1954 -0.0020
385.9286 -0.0020
385.6619 -0.0020
385.3951 -0.0020
385.1284 -0.0020
384.8616 -0.0020
384.5949 -0.0020
384.3281 -0.0020
384.0614 -0.0020
383.7946 -0.0020
383.5278 -0.0020
383.2611 -0.0020
382.9943 -0.0020
382.7276 -0.0020
382.4608 -0.0020
382.1941 -0.0020
381.9273 -0.0020
381.6606 -0.0020
381.3938 -0.0020
381.1270 -0.0020
380.8603 -0.0020
380.5935 -0.0020
380.3268 -0.0013
380.0600 -0.0002
379.7933 0.0000
379.5265 0.0000
379.2598 0.0000
378.9930 0.0000
378.7262 0.0000
378.4595 -0.0002
378.1927 -0.0012
377.9260 -0.0020
377.6592 -0.0020
377.3925 -0.0020
377.1257 -0.0020
376.8590 -0.0020
376.5922 -0.0020
376.3254 -0.0020
376.0587 -0.0020
375.7919 -0.0020
375.5252 -0.0020
375.2584 -0.0025
374.9917 -0.0030
374.7249 -0.0030
374.4582 -0.0030
374.1914 -0.0030
373.9246 -0.0030
373.6579 -0.0030
373.3911 -0.0030
373.1244 -0.0030
372.8576 -0.0030
372.5909 -0.0030
372.3241 -0.0030
372.0574 -0.0030
371.7906 -0.0030
371.5238 -0.0030
371.2571 -0.0030
370.9903 -0.0030
370.7236 -0.0030
370.4568 -0.0030
370.1901 -0.0030
369.9233 -0.0033
369.6566 -0.0044
369.3898 -0.0050
369.1230 -0.0050
368.8563 -0.0050
368.5895 -0.0050
368.3228 -0.0050
368.0560 -0.0050
367.7893 -0.0050
367.5225 -0.0050
367.2558 -0.0050
366.9890 -0.0050
366.7222 -0.0050
366.4555 -0.0050
366.1887 -0.0050
365.9220 -0.0050
365.6552 -0.0050
365.3885 -0.0050
365.1217 -0.0050
364.8550 -0.0050
364.5882 -0.0050
364.3214 -0.0043
364.0547 -0.0032
363.7879 -0.0038
363.5212 -0.0049
363.2544 -0.0055
362.9877 -0.0060
362.7209 -0.0060
362.4542 -0.0060
362.1874 -0.0060
361.9206 -0.0063
361.6539 -0.0074
361.3871 -0.0082
361.1204 -0.0088
360.8536 -0.0096
360.5869 -0.0107
360.3201 -0.0110
360.0534 -0.0110
359.7866 -0.0110
359.5198 -0.0110
359.2531 -0.0110
358.9863 -0.0109
358.7196 -0.0099
358.4528 -0.0090
358.1861 -0.0090
357.9193 -0.0085
357.6526 -0.0069
357.3858 -0.0060
357.1190 -0.0060
356.8523 -0.0057
356.5855 -0.0052
356.3188 -0.0054
356.0520 -0.0059
355.7853 -0.0060
355.5185 -0.0060
355.2518 -0.0055
354.9850 -0.0050
354.7182 -0.0050
354.4515 -0.0050
354.1847 -0.0050
353.9180 -0.0052
353.6512 -0.0057
353.3845 -0.0060
353.1177 -0.0060
352.8510 -0.0060
352.5842 -0.0060
352.3174 -0.0060
352.0507 -0.0060
351.7839 -0.0060
351.5172 -0.0060
351.2504 -0.0060
350.9837 -0.0061
350.7169 -0.0071
350.4502 -0.0078
350.1834 -0.0067
349.9166 -0.0060
349.6499 -0.0060
349.3831 -0.0060
349.1164 -0.0060
348.8496 -0.0060
348.5829 -0.0060
348.3161 -0.0067
348.0493 -0.0078
347.7826 -0.0080
347.5158 -0.0080
347.2491 -0.0080
346.9823 -0.0080
346.7156 -0.0080
346.4488 -0.0080
346.1821 -0.0080
345.9153 -0.0080
345.6485 -0.0080
345.3818 -0.0080
345.1150 -0.0080
344.8483 -0.0080
344.5815 -0.0080
344.3148 -0.0080
344.0480 -0.0080
343.7813 -0.0071
343.5145 -0.0061
343.2477 -0.0060
342.9810 -0.0060
342.7142 -0.0060
342.4475 -0.0060
342.1807 -0.0060
341.9140 -0.0063
341.6472 -0.0074
341.3805 -0.0080
341.1137 -0.0080
340.8469 -0.0080
340.5802 -0.0080
340.3134 -0.0084
340.0467 -0.0089
339.7799 -0.0090
339.5132 -0.0090
339.2464 -0.0100
338.9797 -0.0110
338.7129 -0.0110
338.4461 -0.0110
338.1794 -0.0110
337.9126 -0.0110
337.6459 -0.0110
337.3791 -0.0105
337.1124 -0.0094
336.8456 -0.0090
336.5789 -0.0090
336.3121 -0.0090
336.0453 -0.0090
335.7786 -0.0086
335.5118 -0.0080
335.2451 -0.0080
334.9783 -0.0080
334.7116 -0.0080
334.4448 -0.0080
334.1781 -0.0080
333.9113 -0.0080
333.6445 -0.0080
333.3778 -0.0080
333.1110 -0.0080
332.8443 -0.0080
332.5775 -0.0080
332.3108 -0.0080
332.0440 -0.0080
331.7773 -0.0084
331.5105 -0.0090
331.2437 -0.0085
330.9770 -0.0080
330.7102 -0.0080
330.4435 -0.0081
330.1767 -0.0086
329.9100 -0.0090
329.6432 -0.0090
329.3765 -0.0090
329.1097 -0.0090
328.8429 -0.0090
328.5762 -0.0090
328.3094 -0.0090
328.0427 -0.0090
327.7759 -0.0090
327.5092 -0.0090
327.2424 -0.0085
326.9757 -0.0080
326.7089 -0.0086
326.4421 -0.0089
326.1754 -0.0084
325.9086 -0.0080
325.6419 -0.0080
325.3751 -0.0087
325.1084 -0.0103
324.8416 -0.0110
324.5749 -0.0110
324.3081 -0.0110
324.0413 -0.0110
323.7746 -0.0101
323.5078 -0.0090
323.2411 -0.0106
322.9743 -0.0120
322.7076 -0.0120
322.4408 -0.0119
322.1741 -0.0113
321.9073 -0.0110
321.6405 -0.0110
321.3738 -0.0105
321.1070 -0.0094
320.8403 -0.0087
320.5735 -0.0081
320.3068 -0.0080
320.0400 -0.0080
319.7733 -0.0080
319.5065 -0.0080
319.2397 -0.0080
318.9730 -0.0080
318.7062 -0.0080
318.4395 -0.0080
318.1727 -0.0080
317.9060 -0.0080
317.6392 -0.0080
317.3725 -0.0080
317.1057 -0.0080
316.8389 -0.0080
316.5722 -0.0080
316.3054 -0.0084
316.0387 -0.0089
315.7719 -0.0099
315.5052 -0.0110
315.2384 -0.0100
314.9717 -0.0090
314.7049 -0.0090
314.4381 -0.0090
314.1714 -0.0090
313.9046 -0.0090
313.6379 -0.0090
313.3711 -0.0090
313.1044 -0.0090
312.8376 -0.0090
312.5709 -0.0090
312.3041 -0.0086
312.0373 -0.0081
311.7706 -0.0066
311.5038 -0.0050
311.2371 -0.0050
310.9703 -0.0050
310.7036 -0.0050
310.4368 -0.0051
310.1701 -0.0057
309.9033 -0.0058
309.6365 -0.0053
309.3698 -0.0053
309.1030 -0.0058
308.8363 -0.0060
308.5695 -0.0060
308.3028 -0.0056
308.0360 -0.0051
307.7693 -0.0055
307.5025 -0.0060
307.2357 -0.0071
306.9690 -0.0079
306.7022 -0.0068
306.4355 -0.0063
306.1687 -0.0073
305.9020 -0.0080
305.6352 -0.0080
305.3685 -0.0080
305.1017 -0.0080
304.8349 -0.0080
304.5682 -0.0080
304.3014 -0.0080
304.0347 -0.0080
303.7679 -0.0080
303.5012 -0.0080
303.2344 -0.0069
302.9677 -0.0061
302.7009 -0.0072
302.4341 -0.0080
302.1674 -0.0080
301.9006 -0.0080
301.6339 -0.0080
301.3671 -0.0075
301.1004 -0.0064
300.8336 -0.0060
300.5669 -0.0060
300.3001 -0.0060
300.0333 -0.0060
299.7666 0.0000
299.4998 0.0000
299.2331 0.0000
298.9663 0.0000
298.6996 0.0000
298.4328 0.0000
298.1661 0.0000
297.8993 0.0000
297.6325 0.0000
297.3658 0.0000
297.0990 0.0000
296.8323 0.0000
296.5655 0.0000
296.2988 0.0000
296.0320 0.0000
295.7653 0.0000
295.4985 0.0000
295.2317 0.0000
294.9650 0.0000
294.6982 0.0000
294.4315 0.0000
294.1647 0.0000
293.8980 0.0000
293.6312 0.0000
293.3645 0.0000
293.0977 0.0000
292.8309 0.0000
292.5642 0.0000
292.2974 0.0000
292.0307 0.0000
291.7639 0.0000
291.4972 0.0000
291.2304 0.0000
290.9637 0.0000
290.6969 0.0000
290.4301 0.0000
290.1634 0.0000
289.8966 0.0000
289.6299 0.0000
289.3631 0.0000
289.0964 0.0000
288.8296 0.0000
288.5629 0.0000
288.2961 0.0000
288.0293 0.0000
287.7626 0.0000
287.4958 0.0000
287.2291 0.0000
286.9623 0.0000
286.6956 0.0000
286.4288 0.0000
286.1621 0.0000
285.8953 0.0000
285.6285 0.0000
285.3618 0.0000
285.0950 0.0000
284.8283 0.0000
284.5615 0.0000
284.2948 0.0000
284.0280 0.0000
283.7613 0.0000
283.4945 0.0000
283.2277 0.0000
282.9610 0.0000
282.6942 0.0000
282.4275 0.0000
282.1607 0.0000
281.8940 0.0000
281.6272 0.0000
281.3605 0.0000
281.0937 0.0000
280.8269 0.0000
280.5602 0.0000
280.2934 0.0000
280.0267 0.0000
279.7599 0.0000
279.4932 0.0000
279.2264 0.0000
278.9597 0.0000
278.6929 0.0000
278.4261 0.0000
278.1594 0.0000
277.8926 0.0000
277.6259 0.0000
277.3591 0.0000
277.0924 0.0000
276.8256 0.0000
276.5589 0.0000
276.2921 0.0000
276.0253 0.0000
275.7586 0.0000
275.4918 0.0000
275.2251 0.0000
274.9583 0.0000
274.6916 0.0000
274.4248 0.0000
274.1581 0.0000
273.8913 0.0000
273.6245 0.0000
273.3578 0.0000
273.0910 0.0000
272.8243 0.0000
272.5575 0.0000
272.2908 0.0000
272.0240 0.0000
271.7573 0.0000
271.4905 0.0000
271.2237 0.0000
270.9570 0.0000
270.6902 0.0000
270.4235 0.0000
270.1567 0.0000
269.8900 0.0000
269.6232 0.0000
269.3565 0.0000
269.0897 0.0000
268.8229 0.0000
268.5562 0.0000
268.2894 0.0000
268.0227 0.0000
267.7559 0.0000
267.4892 0.0000
267.2224 0.0000
266.9557 0.0000
266.6889 0.0000
266.4221 0.0000
266.1554 0.0000
265.8886 0.0000
265.6219 0.0000
265.3551 0.0000
265.0884 0.0000
264.8216 0.0000
264.5549 0.0000
264.2881 0.0000
264.0213 0.0000
263.7546 0.0000
263.4878 0.0000
263.2211 0.0000
262.9543 0.0000
262.6876 0.0000
262.4208 0.0000
262.1541 0.0000
261.8873 0.0000
261.6205 0.0000
261.3538 0.0000
261.0870 0.0000
260.8203 0.0000
260.5535 0.0000
260.2868 0.0000
260.0200 0.0000
259.7533 0.0000
259.4865 0.0000
259.2197 0.0000
258.9530 0.0000
258.6862 0.0000
258.4195 0.0000
258.1527 0.0000
257.8860 0.0000
257.6192 0.0000
257.3525 0.0000
257.0857 0.0000
256.8189 0.0000
256.5522 0.0000
256.2854 0.0000
256.0187 0.0000
255.7519 0.0000
255.4852 0.0000
255.2184 0.0000
254.9517 0.0000
254.6849 0.0000
254.4181 0.0000
254.1514 0.0000
253.8846 0.0000
253.6179 0.0000
253.3511 0.0000
253.0844 0.0000
252.8176 0.0000
252.5509 0.0000
252.2841 0.0000
252.0173 0.0000
251.7506 0.0000
251.4838 0.0000
251.2171 0.0000
250.9503 0.0000
250.6836 0.0000
250.4168 0.0000
250.1501 0.0000
249.8833 0.0000
249.6165 0.0000
249.3498 0.0000
249.0830 0.0000
248.8163 0.0000
248.5495 0.0000
248.2828 0.0000
248.0160 0.0000
247.7492 0.0000
247.4825 0.0000
247.2157 0.0000
246.9490 0.0000
246.6822 0.0000
246.4155 0.0000
246.1487 0.0000
245.8820 0.0000
245.6152 0.0000
245.3484 0.0000
245.0817 0.0000
244.8149 0.0000
244.5482 0.0000
244.2814 0.0000
244.0147 0.0000
243.7479 0.0000
243.4812 0.0000
243.2144 0.0000
242.9476 0.0000
242.6809 0.0000
242.4141 0.0000
242.1474 0.0000
241.8806 0.0000
241.6139 0.0000
241.3471 0.0000
241.0804 0.0000
240.8136 0.0000
240.5468 0.0000
240.2801 0.0000
240.0133 0.0000
239.7466 0.0000
239.4798 0.0000
239.2131 0.0000
238.9463 0.0000
238.6796 0.0000
238.4128 0.0000
238.1460 0.0000
237.8793 0.0000
237.6125 0.0000
237.3458 0.0000
237.0790 0.0000
236.8123 0.0000
236.5455 0.0000
236.2788 0.0000
236.0120 0.0000
235.7452 0.0000
235.4785 0.0000
235.2117 0.0000
234.9450 0.0000
234.6782 0.0000
234.4115 0.0000
234.1447 0.0000
233.8780 0.0000
233.6112 0.0000
233.3444 0.0000
233.0777 0.0000
232.8109 0.0000
232.5442 0.0000
232.2774 0.0000
232.0107 0.0000
231.7439 0.0000
231.4772 0.0000
231.2104 0.0000
230.9436 0.0000
230.6769 0.0000
230.4101 0.0000
230.1434 0.0000
229.8766 0.0000
229.6099 0.0000
229.3431 0.0000
229.0764 0.0000
228.8096 0.0000
228.5428 0.0000
228.2761 0.0000
228.0093 0.0000
227.7426 0.0000
227.4758 0.0000
227.2091 0.0000
226.9423 0.0000
226.6756 0.0000
226.4088 0.0000
226.1420 0.0000
225.8753 0.0000
225.6085 0.0000
225.3418 0.0000
225.0750 0.0000
224.8083 0.0000
224.5415 0.0000
224.2748 0.0000
224.0080 0.0000
223.7412 0.0000
223.4745 0.0000
223.2077 0.0000
222.9410 0.0000
222.6742 0.0000
222.4075 0.0000
222.1407 0.0000
221.8740 0.0000
221.6072 0.0000
221.3404 0.0000
221.0737 0.0000
220.8069 0.0000
220.5402 0.0000
220.2734 0.0000
220.0067 0.0000
219.7399 0.0000
219.4732 0.0000
219.2064 0.0000
218.9396 0.0000
218.6729 0.0000
218.4061 0.0000
218.1394 0.0000
217.8726 0.0000
217.6059 0.0000
217.3391 0.0000
217.0724 0.0000
216.8056 0.0000
216.5388 0.0000
216.2721 0.0000
216.0053 0.0000
215.7386 0.0000
215.4718 0.0000
215.2051 0.0000
214.9383 0.0000
214.6716 0.0000
214.4048 0.0000
214.1380 0.0000
213.8713 0.0000
213.6045 0.0000
213.3378 0.0000
213.0710 0.0000
212.8043 0.0000
212.5375 0.0000
212.2708 0.0000
212.0040 0.0000
211.7372 0.0000
211.4705 0.0000
211.2037 0.0000
210.9370 0.0000
210.6702 0.0000
210.4035 0.0000
210.1367 0.0000
209.8700 0.0000
209.6032 0.0000
209.3364 0.0000
209.0697 0.0000
208.8029 0.0000
208.5362 0.0000
208.2694 0.0000
208.0027 0.0000
207.7359 0.0000
207.4692 0.0000
207.2024 0.0000
206.9356 0.0000
206.6689 0.0000
206.4021 0.0000
206.1354 0.0000
205.8686 0.0000
205.6019 0.0000
205.3351 0.0000
205.0684 0.0000
204.8016 0.0000
204.5348 0.0000
204.2681 0.0000
204.0013 0.0000
203.7346 0.0000
203.4678 0.0000
203.2011 0.0000
202.9343 0.0000
202.6676 0.0000
202.4008 0.0000
202.1340 0.0000
201.8673 0.0000
201.6005 0.0000
201.3338 0.0000
201.0670 0.0000
200.8003 0.0000
200.5335 0.0000
200.2668 0.0000
200.0000 0.0000
